SpectraSmart Spectrum 2.9.0.0
--------- Device Information -----------
Spectrum Name :  光譜_0
Saving Time :  2024/04/29 23:13:42
Spectro-Module Model Name : SE2030-DUVN
Spectro-Module Serial Number : OS361AC55029948
Wavelength Start : 200
Wavelength End : 1025
Wavelength Unit : Wavelength(nm)
Spectrum Unit : Intensity(Counts)
-----------Spectrum Setting ------------
Integration Time : 20ms
Average : 1
Boxcar : 0
Background removal :  enabled
linearity correction :  enabled
SC :  disabled
Intensity correction :  disabled
DWT denoise :  enabled
savitzky-golay :  disabled
FFT :  disabled
Running average :  disabled
Kalman :  disabled
High pass :  disabled
---------------BEGIN--------------------
Wavelength(nm)          Intensity(Counts)
200.29       -46.12759
200.75       -45.98374
201.21       -44.45889
201.67       -41.94429
202.13       -39.12701
202.58       -36.46833
203.04       -33.77108
203.50       -31.84023
203.96       -31.97379
204.42       -34.30911
204.88       -38.52191
205.34       -43.23099
205.80       -46.13779
206.26       -46.62354
206.72       -45.13683
207.18       -42.86014
207.64       -41.86066
208.10       -42.54204
208.55       -44.11988
209.01       -45.47074
209.47       -44.78581
209.93       -41.81792
210.39       -37.66238
210.85        -33.1976
211.31       -29.68439
211.77       -27.73057
212.23       -26.90518
212.69        -27.8335
213.14       -31.50266
213.60       -37.63086
214.06        -45.6404
214.52       -53.44705
214.98       -57.71971
215.44       -57.73651
215.90       -54.46527
216.36       -49.71129
216.81       -46.57257
217.27       -45.98297
217.73       -46.96711
218.19       -48.90844
218.65       -50.75284
219.11       -51.99122
219.57       -53.09355
220.02       -53.48286
220.48       -52.14125
220.94       -49.01714
221.40       -44.31447
221.86       -39.36399
222.32       -36.37138
222.77       -35.92309
223.23       -37.64431
223.69       -40.13887
224.15       -41.07365
224.61       -39.89508
225.06        -37.1818
225.52       -34.64669
225.98       -34.99678
226.44       -38.73835
226.90        -45.0139
227.36        -51.4682
227.81       -54.41595
228.27       -53.09095
228.73       -48.58479
229.19        -43.6205
229.65       -42.58263
230.10       -46.35246
230.56       -53.36687
231.02       -60.77646
231.48       -64.07703
231.93       -62.13053
232.39       -56.46181
232.85       -49.24001
233.31       -43.89273
233.77       -41.53441
234.22       -41.20045
234.68       -41.90384
235.14       -42.03529
235.60       -41.18487
236.05       -40.15692
236.51        -39.4577
236.97       -39.75761
237.43       -41.13297
237.88       -42.89753
238.34       -44.92288
238.80       -47.17204
239.26       -49.38415
239.71       -51.59761
240.17       -52.76576
240.63       -51.23735
241.08       -46.95058
241.54       -40.54103
242.00       -34.05336
242.46       -30.75544
242.91       -31.37578
243.37       -34.97985
243.83        -39.6167
244.28       -42.03933
244.74       -41.37466
245.20       -38.62685
245.66       -35.08479
246.11       -32.85226
246.57       -32.52465
247.03       -33.26788
247.48       -34.47764
247.94       -35.27242
248.40       -35.33507
248.85       -35.11638
249.31        -34.5509
249.77       -33.45471
250.22       -31.88426
250.68        -29.7572
251.14       -27.73154
251.59       -26.89768
252.05       -27.44936
252.51       -29.19409
252.96       -30.98108
253.42       -30.95319
253.88       -28.71112
254.33       -24.65233
254.79       -20.36282
255.25        -18.4183
255.70       -19.30219
256.16       -22.25573
256.62       -25.20708
257.07       -24.82699
257.53       -20.53888
257.99       -13.63183
258.44       -6.553767
258.90       -3.109244
259.35       -4.355911
259.81        -9.20601
260.27       -15.79956
260.72       -21.18081
261.18       -24.30933
261.63       -25.73609
262.09       -26.66819
262.55       -29.03118
263.00       -33.20609
263.46       -38.55234
263.91       -43.14476
264.37       -44.11734
264.83       -41.03872
265.28       -34.83763
265.74       -28.53424
266.19       -26.86069
266.65       -30.74479
267.11       -38.76784
267.56       -47.28846
268.02        -50.4338
268.47       -46.90405
268.93       -38.58897
269.38       -29.07117
269.84        -24.0996
270.30        -25.1229
270.75       -30.23993
271.21       -36.65915
271.66        -39.9482
272.12       -38.89257
272.57        -35.0988
273.03       -30.33371
273.48       -27.26663
273.94       -26.79812
274.39       -27.99684
274.85       -30.09359
275.31        -32.0416
275.76       -33.31412
276.22       -34.05981
276.67       -34.51679
277.13       -35.00558
277.58        -35.4761
278.04       -35.75418
278.49       -35.02962
278.95       -32.05582
279.40       -27.00946
279.86       -20.86336
280.31       -15.29605
280.77       -12.84651
281.22       -14.19731
281.68       -18.44312
282.13       -24.80187
282.59       -31.99159
283.04       -39.01104
283.50       -45.65472
283.95       -50.77686
284.41       -52.69304
284.86       -51.17921
285.32       -46.84562
285.77       -40.69338
286.22       -34.53262
286.68       -29.19742
287.13       -24.37017
287.59       -20.80054
288.04       -19.50148
288.50       -20.32574
288.95       -22.96998
289.41       -25.54205
289.86       -24.81936
290.32       -20.33885
290.77       -13.41075
291.22       -5.956079
291.68       -1.176102
292.13     -0.06580578
292.59       -1.459301
293.04       -5.230359
293.50       -11.09541
293.95       -18.38468
294.40       -27.13716
294.86       -35.10061
295.31        -38.6556
295.77       -37.25708
296.22       -31.80753
296.68        -25.4732
297.13       -23.60841
297.58        -27.3411
298.04       -34.90817
298.49       -43.40226
298.95       -48.03135
299.40       -47.54251
299.85       -43.73307
300.31       -38.14912
300.76       -33.27611
301.21       -30.21164
301.67       -27.80074
302.12       -25.85981
302.58        -27.2661
303.03       -32.47729
303.48       -35.49064
303.94       -32.95473
304.39       -49.81385
304.84       -37.01411
305.30       -33.99364
305.75       -28.90134
306.20       -27.12066
306.66       -29.30333
307.11       -34.87645
307.57       -41.35997
308.02       -43.42739
308.47       -40.15748
308.93       -33.07421
309.38       -25.66838
309.83       -23.49176
310.29       -27.68985
310.74        -36.3799
311.19       -45.72555
311.65       -49.67561
312.10       -46.77061
312.55       -38.95317
313.00       -29.61379
313.46       -24.15804
313.91        -24.0117
314.36       -27.40113
314.82       -31.81096
315.27        -33.2822
315.72       -30.75583
316.18       -25.72007
316.63       -19.90154
317.08       -15.87883
317.53       -14.48403
317.99       -14.86457
318.44       -16.14844
318.89       -17.04011
319.35       -17.13452
319.80        -16.9262
320.25       -16.91864
320.70       -17.81732
321.16        -19.7281
321.61       -22.21404
322.06       -24.74612
322.51       -26.58692
322.97       -27.53664
323.42       -27.87566
323.87       -27.86096
324.32       -27.91321
324.78       -28.18489
325.23       -28.47752
325.68       -28.91356
326.13       -29.68966
326.59       -30.76601
327.04        -32.1263
327.49       -33.19883
327.94       -33.07755
328.39       -31.57799
328.85       -28.87411
329.30        -25.8697
329.75        -23.9979
330.20        -23.6514
330.66       -24.65203
331.11       -25.82497
331.56       -25.26473
332.01       -22.61847
332.46       -18.34237
332.92         -14.315
333.37       -13.53756
333.82       -16.45098
334.27       -22.02672
334.72       -27.57024
335.17       -28.77809
335.63        -24.8516
336.08       -17.37919
336.53       -9.183227
336.98       -4.785119
337.43       -5.383071
337.88       -9.457141
338.34       -15.32897
338.79       -20.24718
339.24         -23.254
339.69       -25.34691
340.14       -26.54322
340.59       -26.85698
341.05       -26.46807
341.50       -24.93129
341.95        -23.4375
342.40       -24.10632
342.85       -27.15981
343.30        -32.0865
343.75       -36.56968
344.20       -36.79848
344.66       -32.11983
345.11       -23.82611
345.56       -14.83017
346.01       -9.777485
346.46       -9.876789
346.91       -13.82762
347.36        -19.2139
347.81       -22.10303
348.26       -21.40454
348.72       -18.26748
349.17       -14.49167
349.62       -12.97086
350.07       -14.29621
350.52       -17.21361
350.97       -20.10241
351.42        -20.5055
351.87        -17.9256
352.32       -13.61953
352.77       -8.697343
353.22       -4.762562
353.67       -2.596638
354.13       -1.782987
354.58        -2.77817
355.03       -6.310654
355.48       -12.07964
355.93        -19.5351
356.38       -27.12039
356.83       -32.33355
357.28       -34.45086
357.73       -34.05356
358.18       -31.85244
358.63       -29.22506
359.08       -26.79775
359.53        -24.2346
359.98       -22.05016
360.43       -21.01965
360.88       -21.21547
361.33       -22.63887
361.78       -24.29483
362.23       -24.38274
362.68       -22.61073
363.13       -19.58656
363.58       -16.46521
364.03        -15.1715
364.48       -16.14662
364.93       -18.61959
365.38       -21.86514
365.83       -24.73553
366.28       -26.74351
366.73       -28.25134
367.18       -28.99327
367.63        -28.5586
368.08       -27.03246
368.53       -24.48134
368.98       -21.87521
369.43       -20.82462
369.88       -21.67122
370.33        -24.0558
370.78       -26.84173
371.23       -28.11251
371.68        -27.4167
372.13       -25.30455
372.58       -22.85586
373.03       -21.83731
373.48       -22.62364
373.93       -24.53564
374.38       -26.60057
374.83        -27.2961
375.28       -26.25941
375.72       -24.13036
376.17        -21.5097
376.62       -19.32965
377.07       -17.93948
377.52       -16.99064
377.97       -16.64569
378.42       -17.13005
378.87       -18.42804
379.32        -20.6871
379.77        -23.0708
380.22       -24.20926
380.67       -23.83921
381.11        -22.1059
381.56       -20.54921
382.01       -21.68733
382.46       -25.91744
382.91       -32.53703
383.36       -39.07264
383.81        -41.5697
384.26       -39.28919
384.71       -33.44854
385.15        -27.0912
385.60       -25.14132
386.05        -28.6014
386.50       -35.73154
386.95       -43.54336
387.40       -47.24131
387.85        -45.6407
388.29       -40.53583
388.74       -33.91123
389.19       -28.89054
389.64       -26.60968
390.09       -26.05304
390.54       -27.07666
390.98       -29.45016
391.43       -32.83532
391.88       -37.50885
392.33       -42.30355
392.78       -45.23965
393.23       -45.84343
393.67       -44.23215
394.12       -42.04649
394.57       -42.13264
395.02       -45.00526
395.47       -49.87617
395.91        -54.3728
396.36        -54.6874
396.81       -50.16038
397.26       -42.14875
397.71       -33.62786
398.15       -29.29126
398.60       -30.25146
399.05       -35.05309
399.50       -41.06646
399.95       -44.01585
400.39       -42.82468
400.84       -38.98906
401.29        -34.3539
401.74       -31.86412
402.18       -32.30558
402.63        -34.3981
403.08       -37.34809
403.53       -39.99216
403.97       -41.81205
404.42       -43.41454
404.87       -44.14373
405.32       -42.89538
405.76       -39.65594
406.21       -34.53173
406.66       -29.49863
407.11       -27.78467
407.55       -29.99661
408.00       -35.40715
408.45       -41.14266
408.90       -42.51248
409.34       -38.56449
409.79       -30.65909
410.24       -22.32393
410.68       -19.20817
411.13       -22.55836
411.58       -30.62573
412.03       -39.64931
412.47       -43.64271
412.92       -41.17798
413.37       -34.12625
413.81       -26.00675
414.26        -22.4313
414.71       -24.72054
415.15       -30.91217
415.60       -37.93461
416.05       -40.96406
416.49       -38.79987
416.94       -33.24483
417.39        -26.5225
417.83       -22.08257
418.28       -20.96231
418.73       -21.88554
419.17       -23.95537
419.62       -25.80845
420.07       -26.89383
420.51       -27.89577
420.96       -28.49398
421.41       -28.02254
421.85       -26.57019
422.30       -24.22106
422.74       -22.21636
423.19       -22.66538
423.64       -25.88244
424.08       -31.11212
424.53        -36.6704
424.98       -39.90887
425.42        -39.9422
425.87       -37.22987
426.31       -32.98996
426.76       -29.19918
427.21        -26.5939
427.65       -25.11246
428.10       -23.47247
428.54       -19.57972
428.99       -13.36206
429.44       -5.640353
429.88       0.5214216
430.33        0.389799
430.77       -6.575233
431.22       -18.48345
431.66       -30.85205
432.11        -36.5978
432.56       -33.99329
433.00       -25.18338
433.45       -13.87497
433.89        -6.13089
434.34       -3.875633
434.78        -5.48175
435.23       -9.032624
435.67       -11.41873
436.12       -11.66184
436.57       -10.85374
437.01       -10.13768
437.46       -11.10661
437.90       -14.02534
438.35       -18.02736
438.79       -21.70289
439.24       -23.05874
439.68        -21.6916
440.13       -18.33977
440.57        -14.4179
441.02       -12.17779
441.46       -12.16828
441.91       -13.59532
442.35       -15.49599
442.80       -16.30099
443.24       -15.54051
443.69       -13.88309
444.13         -11.544
444.58        -8.80403
445.02        -6.00402
445.47       -3.114173
445.91      -0.9126016
446.36      -0.6412753
446.80       -2.515691
447.24       -6.258731
447.69       -10.79466
448.13       -14.32682
448.58        -16.3189
449.02       -17.05851
449.47       -17.42985
449.91       -18.96064
450.36       -21.92415
450.80       -25.73513
451.25       -29.23672
451.69       -30.67043
452.13       -29.67653
452.58       -26.89574
453.02       -23.62256
453.47        -21.8338
453.91       -22.13338
454.36       -24.10489
454.80       -26.64876
455.24       -28.00904
455.69       -27.69271
456.13       -26.03642
456.58       -24.34281
457.02       -24.67279
457.46       -27.34887
457.91       -31.75157
458.35       -35.80853
458.79       -36.22666
459.24       -32.59406
459.68       -26.26565
460.13       -20.07121
460.57       -18.48101
461.01       -22.49915
461.46        -30.5238
461.90       -40.30313
462.34       -48.18912
462.79       -52.92439
463.23       -55.52498
463.68       -56.39039
464.12       -56.31244
464.56       -55.61211
465.01       -53.57074
465.45       -51.00319
465.89       -49.38728
466.34       -48.97589
466.78       -49.86324
467.22       -50.14989
467.67       -46.58093
468.11       -38.83263
468.55       -28.03907
468.99        -17.6823
469.44       -13.26026
469.88       -15.88774
470.32       -23.88654
470.77       -33.32119
471.21       -37.84642
471.65       -35.85775
472.10        -29.1661
472.54       -21.14401
472.98        -17.3028
473.42       -18.94884
473.87       -24.10093
474.31       -30.00831
474.75       -32.34032
475.20       -30.08892
475.64       -25.13474
476.08       -19.25035
476.52       -15.13302
476.97       -13.65642
477.41       -13.56454
477.85       -14.89869
478.29       -17.82498
478.74       -21.87534
479.18       -27.13911
479.62       -31.40319
480.06        -31.0268
480.50       -25.60617
480.95        -16.2967
481.39       -6.600438
481.83       -2.266049
482.27       -4.580574
482.72       -11.76172
483.16        -20.6816
483.60       -26.17283
484.04       -26.78717
484.48       -24.21892
484.93       -20.18005
485.37       -17.42006
485.81       -16.87072
486.25       -17.40648
486.69       -18.71134
487.14       -20.49463
487.58       -22.32827
488.02       -24.31236
488.46         -25.729
488.90       -25.24417
489.34       -22.73652
489.79       -18.80863
490.23       -14.17555
490.67       -10.07804
491.11       -7.060147
491.55       -4.788988
491.99       -3.853264
492.43       -5.077146
492.88       -8.329837
493.32       -13.34588
493.76       -18.29986
494.20       -20.25478
494.64       -18.59691
495.08       -14.02746
495.52       -8.679084
495.96        -6.11353
496.41        -7.18031
496.85       -10.84577
497.29       -15.09161
497.73       -16.65458
498.17       -14.74607
498.61       -10.47254
499.05       -5.638456
499.49       -3.047534
499.93       -3.449274
500.37       -5.960947
500.82       -9.159125
501.26        -10.7935
501.70       -10.33676
502.14       -8.628076
502.58       -6.823683
503.02       -6.744871
503.46       -8.723853
503.90       -11.80455
504.34       -15.16397
504.78       -17.57692
505.22       -18.59347
505.66       -18.77773
506.10       -17.80996
506.54       -15.17846
506.98        -11.1039
507.42       -5.736243
507.86       -0.807295
508.30       0.9110171
508.74       -1.058355
509.18        -6.02192
509.62       -11.64005
510.06       -14.00196
510.50       -12.31744
510.94       -7.884711
511.38       -3.033529
511.82       -1.576548
512.26       -4.390341
512.70       -9.954688
513.14       -16.66524
513.58       -22.00638
514.02       -25.06262
514.46       -26.72089
514.90       -26.94867
515.34       -25.66796
515.78       -23.21265
516.22       -19.49423
516.66       -15.86154
517.10        -14.6382
517.54       -16.11714
517.98       -19.54029
518.42       -23.13893
518.86       -23.91472
519.30        -21.2125
519.74       -16.23605
520.18        -10.1517
520.62       -4.823681
521.06       -1.133854
521.50        1.356168
521.93        2.069354
522.37        0.145595
522.81       -4.290831
523.25       -10.94112
523.69       -18.21797
524.13       -23.51026
524.57       -26.05827
525.01       -26.25208
525.45       -25.30007
525.89       -25.39487
526.32       -27.06064
526.76        -29.5988
527.20        -31.9496
527.64       -32.40815
528.08       -30.72016
528.52       -27.80697
528.96       -24.72519
529.40       -23.00924
529.83        -23.1538
530.27       -24.58664
530.71       -26.99567
531.15       -29.93737
531.59        -32.9289
532.03       -35.83466
532.46       -38.03471
532.90       -38.53186
533.34       -37.23502
533.78       -34.67716
534.22       -31.28876
534.66       -27.81591
535.09       -24.78917
535.53       -22.11895
535.97       -20.77086
536.41        -22.2397
536.85       -26.38321
537.28       -32.36144
537.72       -38.22919
538.16       -40.81987
538.60       -39.43198
539.04       -35.30608
539.47       -29.49501
539.91       -23.78407
540.35       -19.18326
540.79       -15.29514
541.22       -13.40921
541.66       -15.54241
542.10       -21.56176
542.54        -30.5691
542.97       -39.82568
543.41       -44.81595
543.85       -44.45499
544.29       -40.13492
544.72       -33.64943
545.16        -28.1158
545.60       -24.73916
546.04       -22.59151
546.47       -21.98962
546.91       -23.41638
547.35       -26.51841
547.79       -31.18546
548.22       -35.66225
548.66          -36.91
549.10       -34.42738
549.53       -29.27095
549.97       -23.18402
550.41       -19.12627
550.84       -18.04527
551.28       -18.97276
551.72       -21.59192
552.15       -25.37126
552.59       -29.62603
553.03       -34.25558
553.46        -37.9041
553.90       -38.39995
554.34       -35.36288
554.77       -29.46253
555.21       -22.11818
555.65       -15.71822
556.08       -11.28679
556.52        -8.63076
556.96        -7.58766
557.39       -7.696063
557.83       -8.695852
558.27       -10.60294
558.70       -13.51592
559.14       -17.50453
559.57       -22.22315
560.01        -27.2582
560.45       -31.34317
560.88        -32.6663
561.32        -31.0093
561.75       -27.05278
562.19       -22.43404
562.63       -19.83318
563.06       -19.97844
563.50       -22.09203
563.93       -25.24257
564.37       -27.81917
564.80       -29.23307
565.24       -30.04424
565.68       -30.23272
566.11        -29.7067
566.55       -28.68243
566.98       -27.22059
567.42       -26.01881
567.85       -26.26375
568.29       -28.21219
568.72        -31.4987
569.16         -35.474
569.60       -39.09904
570.03       -41.79031
570.47       -43.41338
570.90       -44.01307
571.34       -43.75544
571.77       -42.72459
572.21       -41.13545
572.64        -38.4869
573.08         -33.938
573.51       -27.89693
573.95       -21.18353
574.38       -15.87642
574.82        -15.1618
575.25       -19.45838
575.69        -27.2875
576.12       -36.58689
576.56       -44.03938
576.99       -48.32964
577.42       -50.25763
577.86       -49.52304
578.29       -45.84379
578.73       -39.79863
579.16       -31.69874
579.60       -23.83599
580.03        -19.9208
580.47       -20.78756
580.90       -25.56257
581.33       -32.11369
581.77       -36.71824
582.20       -38.23649
582.64       -37.59893
583.07       -35.82072
583.51       -34.69447
583.94       -34.68446
584.37       -34.89996
584.81       -34.96313
585.24       -34.41204
585.68        -33.1515
586.11       -31.78979
586.54       -30.10196
586.98       -27.55116
587.41       -24.29746
587.85       -20.49024
588.28        -17.5636
588.71       -17.81407
589.15       -21.46607
589.58       -27.65922
590.01        -34.1218
590.45       -37.21592
590.88       -36.08183
591.31       -31.81803
591.75       -26.38353
592.18       -22.99377
592.61       -22.64372
593.05       -24.46357
593.48       -27.41775
593.91       -29.78872
594.35       -31.08729
594.78       -31.98844
595.21       -33.00526
595.65       -34.89568
596.08       -37.68941
596.51        -40.6528
596.94       -43.44553
597.38       -45.66522
597.81       -47.12315
598.24       -48.18974
598.68       -48.16631
599.11       -45.96349
599.54        -41.6368
599.97       -35.44178
600.41       -29.62308
600.84       -27.73621
601.27       -30.35892
601.70        -36.5589
602.14       -43.03677
602.57       -44.39112
603.00        -39.5891
603.43        -30.4071
603.87       -20.55596
604.30       -16.03424
604.73        -18.2466
605.16       -25.11891
605.60       -33.64005
606.03       -38.99526
606.46       -39.76814
606.89       -37.60479
607.32       -33.95171
607.76       -31.06793
608.19        -29.8272
608.62       -29.36722
609.05       -29.72071
609.48       -31.07227
609.92        -33.2715
610.35       -36.44819
610.78       -39.72744
611.21       -41.59063
611.64        -41.6085
612.07       -39.86304
612.50       -37.41148
612.94       -36.08366
613.37        -36.2928
613.80       -37.71419
614.23       -38.84568
614.66        -37.2128
615.09       -32.60575
615.52       -26.12624
615.96       -20.22897
616.39        -18.7343
616.82       -22.38937
617.25       -29.73663
617.68       -38.42607
618.11       -44.73677
618.54       -47.39545
618.97       -47.31213
619.40       -45.37696
619.84       -43.10112
620.27       -41.17767
620.70       -39.27187
621.13       -37.35086
621.56       -35.45227
621.99       -33.66512
622.42       -32.16444
622.85       -31.42272
623.28       -32.01707
623.71       -33.80528
624.14        -36.3392
624.57       -38.46102
625.00        -38.3887
625.43       -35.80062
625.86       -31.43466
626.29       -26.35816
626.72       -22.24652
627.15       -19.91466
627.58       -19.24748
628.01       -20.31339
628.44        -23.1175
628.87       -27.38974
629.30       -32.76326
629.73       -38.93604
630.16       -45.43974
630.59       -51.68833
631.02       -57.35175
631.45       -61.15224
631.88       -61.30528
632.31       -57.69158
632.74       -51.04239
633.17        -43.2666
633.60        -37.4726
634.03       -34.56004
634.46       -33.79705
634.89       -34.20218
635.32       -33.93987
635.75       -32.50247
636.18       -30.76465
636.61       -28.81126
637.04        -26.6954
637.47       -24.64123
637.89       -22.38638
638.32       -20.98892
638.75       -22.27845
639.18       -26.33955
639.61       -32.51125
640.04       -38.72883
640.47       -41.63338
640.90       -40.55042
641.33       -36.59817
641.76       -31.72761
642.18       -29.16181
642.61       -29.77625
643.04        -32.4213
643.47       -36.11523
643.90       -39.29387
644.33       -41.23344
644.76       -42.40998
645.18       -42.43195
645.61       -40.61811
646.04       -37.06925
646.47       -32.01977
646.90       -26.54029
647.33       -22.45913
647.75       -20.28334
648.18       -19.61467
648.61       -19.84502
649.04       -19.82889
649.47       -19.20574
649.89       -18.40848
650.32       -17.49082
650.75       -16.51681
651.18       -15.60625
651.61       -14.63325
652.03        -14.0418
652.46       -14.61216
652.89       -16.43242
653.32       -19.27283
653.74       -22.34706
654.17       -24.38981
654.60       -25.04739
655.03       -24.55542
655.46       -23.67044
655.88       -23.63978
656.31       -24.77531
656.74       -26.78647
657.16       -28.76928
657.59       -29.28478
658.02       -28.08785
658.45       -25.64842
658.87       -23.23267
659.30       -22.84694
659.73       -24.81443
660.15       -28.35725
660.58        -31.9762
661.01        -33.2893
661.44       -31.74336
661.86       -28.21664
662.29       -23.82033
662.72       -20.32834
663.14        -18.3788
663.57       -17.44275
664.00       -17.35386
664.42        -17.8451
664.85       -18.64601
665.27       -19.84138
665.70       -20.96327
666.13       -21.16756
666.55       -20.31961
666.98       -18.66065
667.41        -16.5927
667.83       -14.89583
668.26       -13.77657
668.69       -12.85759
669.11       -12.27008
669.54       -12.20542
669.96       -12.55208
670.39        -13.3766
670.82       -13.73056
671.24       -12.04341
671.67       -8.248911
672.09       -3.028018
672.52        1.809582
672.94        3.438185
673.37        1.106008
673.80       -4.496144
674.22       -11.76897
674.65       -18.09951
675.07        -22.5858
675.50       -25.58553
675.92       -28.24994
676.35       -32.51918
676.77       -38.63339
677.20       -45.77663
677.62       -51.92585
678.05       -54.04219
678.47       -51.65025
678.90       -45.87284
679.32       -39.37505
679.75       -36.35584
680.17       -37.82145
680.60        -42.5336
681.02       -48.15977
681.45       -50.85642
681.87       -49.66721
682.30       -45.96986
682.72       -41.42057
683.15       -38.62721
683.57       -38.37511
684.00       -39.65081
684.42       -41.80547
684.85       -43.91828
685.27        -45.4981
685.70       -46.86368
686.12       -47.68101
686.54       -47.32398
686.97       -45.81034
687.39       -43.35869
687.82       -40.67439
688.24       -38.95513
688.66       -38.60333
689.09       -39.42202
689.51       -41.14034
689.94       -43.20951
690.36       -45.38867
690.78       -47.75903
691.21       -50.21846
691.63       -52.66032
692.06       -54.88501
692.48       -56.57184
692.90       -57.67788
693.33       -58.21012
693.75       -58.24349
694.17       -58.08749
694.60        -57.2819
695.02       -55.12767
695.44        -51.6441
695.87       -46.85023
696.29       -42.56418
696.71       -41.65652
697.14       -44.43307
697.56       -50.11712
697.98        -55.4334
698.41       -55.00808
698.83       -48.11855
699.25       -36.90316
699.68       -25.46877
700.10       -20.43744
700.52       -23.33523
700.94       -31.60225
701.37       -42.55045
701.79       -51.86633
702.21       -57.73772
702.64       -61.41474
703.06       -62.19889
703.48       -59.00603
703.90       -52.33338
704.33       -42.59247
704.75       -32.74955
705.17       -27.78005
705.59       -28.77855
706.01       -34.43368
706.44       -42.14159
706.86       -47.35279
707.28       -48.70925
707.70       -47.61292
708.12       -45.04067
708.55       -42.65281
708.97        -41.1419
709.39       -39.70867
709.81       -38.87311
710.23       -39.65713
710.66       -42.02402
711.08       -45.80645
711.50        -49.4714
711.92       -50.40892
712.34       -48.09721
712.76       -43.26323
713.19       -37.64817
713.61       -34.12407
714.03       -33.46513
714.45       -34.89957
714.87        -37.0491
715.29        -37.6605
715.71        -36.1619
716.13       -33.31186
716.56       -30.26398
716.98       -28.81103
717.40       -29.34303
717.82       -31.12798
718.24       -33.14908
718.66        -33.8498
719.08       -32.86457
719.50       -30.86241
719.92       -28.49976
720.34       -26.77767
720.76       -26.07224
721.19       -25.99817
721.61       -26.60567
722.03       -28.01826
722.45        -30.0275
722.87       -32.51224
723.29        -34.7762
723.71       -35.64058
724.13        -34.9544
724.55         -33.223
724.97       -31.04948
725.39       -29.48924
725.81       -28.88386
726.23       -28.74155
726.65       -29.36426
727.07       -31.21837
727.49       -34.06971
727.91       -37.74501
728.33       -40.63414
728.75       -40.13964
729.17       -35.94296
729.59       -28.98982
730.01       -21.54502
730.43       -17.26596
730.85       -17.14453
731.27       -20.17507
731.69       -24.74604
732.10       -28.19072
732.52       -29.57671
732.94       -29.52855
733.36       -28.77777
733.78        -28.4996
734.20       -29.00375
734.62       -29.83547
735.04        -30.2362
735.46       -29.13542
735.88       -26.47418
736.30       -22.83861
736.72       -19.48179
737.13       -18.29738
737.55       -19.64653
737.97       -22.82836
738.39       -26.68535
738.81       -29.30567
739.23       -30.17087
739.65       -29.98052
740.06       -29.09038
740.48       -28.16085
740.90        -27.4494
741.32       -26.42113
741.74       -25.81638
742.16       -26.87657
742.57        -29.6394
742.99       -33.97368
743.41       -37.80103
743.83        -37.6714
744.25       -33.21821
744.67       -25.70748
745.08       -18.39423
745.50       -16.51473
745.92       -21.14829
746.34       -30.43323
746.75       -41.35128
747.17       -49.04497
747.59       -51.96367
748.01       -51.46585
748.42       -48.80736
748.84       -46.08783
749.26       -44.15271
749.68       -42.27873
750.09       -40.49601
750.51       -39.00579
750.93       -37.78829
751.35       -37.06151
751.76       -36.59243
752.18       -35.73586
752.60       -34.39258
753.01        -32.8071
753.43       -31.10078
753.85       -29.54399
754.27       -28.24683
754.68       -27.02929
755.10       -26.31668
755.52       -26.73418
755.93       -28.39625
756.35       -31.35481
756.77       -34.49086
757.18       -36.02388
757.60       -35.59708
758.02       -33.40002
758.43       -31.43131
758.85       -32.96848
759.26       -38.41794
759.68        -46.7077
760.10       -54.53221
760.51       -56.59547
760.93        -52.0012
761.34       -42.68884
761.76       -32.47081
762.18       -27.46818
762.59        -29.1836
763.01       -35.49311
763.42       -43.71726
763.84       -49.53928
764.26       -51.46269
764.67       -50.87077
765.09       -48.32488
765.50       -44.66462
765.92       -40.58115
766.33       -35.85124
766.75       -31.46817
767.16       -29.16014
767.58       -29.32376
768.00       -31.67314
768.41       -35.26319
768.83       -38.38498
769.24       -40.32396
769.66       -41.17191
770.07       -41.21382
770.49       -41.02896
770.90       -40.76926
771.32       -40.33964
771.73       -39.10424
772.15        -36.1153
772.56       -31.52315
772.97       -25.95809
773.39       -21.15655
773.80       -19.75803
774.22       -22.20237
774.63        -27.4911
775.05       -33.71861
775.46       -37.83065
775.88       -38.81966
776.29       -37.40087
776.70       -34.43271
777.12       -31.38879
777.53       -28.92531
777.95       -26.80181
778.36        -24.9072
778.77        -23.0747
779.19       -21.39846
779.60        -20.1597
780.02       -19.94682
780.43       -21.54658
780.84       -24.83979
781.26       -29.19662
781.67       -33.48527
782.09       -35.97094
782.50       -36.20872
782.91       -34.82204
783.33       -32.24995
783.74       -29.29696
784.15       -26.46674
784.57       -23.56218
784.98       -21.52419
785.39       -21.79374
785.81       -24.47632
786.22        -29.2212
786.63       -34.21065
787.04       -36.43456
787.46       -35.23934
787.87       -31.42151
788.28       -26.90069
788.70       -24.87681
789.11       -26.10271
789.52       -29.52513
789.93       -33.49396
790.35       -35.36619
790.76       -34.45856
791.17       -31.73531
791.58       -28.29981
792.00       -25.87057
792.41       -24.96644
792.82       -24.92189
793.23       -25.36685
793.65       -25.73726
794.06       -25.83769
794.47       -26.09678
794.88       -26.21873
795.29       -25.66045
795.71         -24.404
796.12       -22.40234
796.53       -20.74209
796.94       -21.21829
797.35       -24.04527
797.76       -28.71399
798.18       -33.28383
798.59       -34.62098
799.00       -32.15628
799.41       -26.87969
799.82       -21.09683
800.23       -18.58051
800.64        -20.1149
801.06       -24.30546
801.47       -29.15889
801.88       -31.45321
802.29        -30.3371
802.70       -27.14714
803.11       -22.74129
803.52       -18.41134
803.93       -14.92147
804.34       -11.87935
804.75       -10.21642
805.17         -11.489
805.58       -15.64313
805.99       -22.02837
806.40       -28.72504
806.81       -32.56606
807.22        -32.7231
807.63       -30.08093
808.04       -25.84177
808.45       -22.09832
808.86       -19.70005
809.27       -18.16945
809.68       -17.62621
810.09       -18.19206
810.50       -19.79131
810.91       -22.58331
811.32       -25.97575
811.73       -28.87529
812.14       -30.93728
812.55       -32.18733
812.96       -33.19358
813.37       -34.99228
813.78       -37.79892
814.19       -41.37179
814.60       -44.81608
815.01       -46.71095
815.42        -46.8698
815.83       -45.78075
816.24       -44.79527
816.65       -46.08898
817.05       -49.93656
817.46       -55.32709
817.87       -60.66721
818.28       -63.46901
818.69       -63.00531
819.10       -60.13854
819.51       -55.58664
819.92        -50.4533
820.33       -45.54264
820.74       -40.95338
821.14       -37.26822
821.55       -35.41388
821.96       -35.42492
822.37       -36.70518
822.78       -39.04062
823.19       -41.99107
823.60       -44.95163
824.00       -47.87386
824.41       -48.94804
824.82       -45.38572
825.23       -37.20805
825.64       -25.78557
826.04       -14.48459
826.45       -8.657666
826.86       -9.696402
827.27       -16.04273
827.68       -25.43877
828.08        -34.0666
828.49       -40.35288
828.90       -45.01156
829.31        -48.0949
829.72        -49.8384
830.12       -50.42146
830.53       -49.47833
830.94       -47.31262
831.35       -44.73239
831.75       -42.10844
832.16       -39.59309
832.57       -37.50655
832.97       -36.04319
833.38        -35.3822
833.79       -35.83554
834.20       -37.00268
834.60       -38.13733
835.01       -39.05967
835.42       -39.65372
835.82        -40.8363
836.23       -44.20396
836.64       -49.68143
837.04       -56.41386
837.45       -62.24793
837.86       -63.84477
838.26       -60.61981
838.67       -53.87138
839.08       -45.78605
839.48       -39.86627
839.89       -37.31095
840.29       -37.28506
840.70       -39.11207
841.11       -41.54134
841.51       -43.99724
841.92       -46.88477
842.33       -49.82038
842.73       -52.13588
843.14       -53.58533
843.54       -53.91287
843.95       -53.56747
844.35       -53.50272
844.76       -53.92034
845.17       -54.69555
845.57       -55.01212
845.98       -53.52885
846.38       -50.13036
846.79       -45.34143
847.19       -40.64404
847.60       -38.36913
848.00       -38.91871
848.41        -41.4882
848.81       -44.47731
849.22        -45.2126
849.62       -43.20112
850.03       -39.66368
850.43       -35.63541
850.84       -32.83059
851.24       -31.77442
851.65       -31.42175
852.05       -32.44067
852.46       -35.94872
852.86       -41.61093
853.27       -49.18632
853.67       -55.37785
854.07       -54.87819
854.48       -47.04785
854.88        -33.6764
855.29       -19.83639
855.69        -13.7067
856.10       -17.22335
856.50       -28.02205
856.90       -41.49462
857.31       -50.07751
857.71        -51.6372
858.12       -48.34743
858.52       -43.32556
858.92       -41.64108
859.33       -44.54159
859.73       -49.97536
860.13       -55.68131
860.54        -58.2719
860.94       -56.95618
861.34       -53.42514
861.75        -48.9717
862.15       -45.42244
862.55       -43.53899
862.96       -42.49641
863.36       -42.76773
863.76       -45.23083
864.17       -49.49723
864.57        -55.0718
864.97       -59.71801
865.38       -59.81802
865.78       -54.73639
866.18       -45.74153
866.58        -35.1735
866.99       -26.86348
867.39       -22.19873
867.79       -20.42446
868.19       -20.84913
868.60       -22.18206
869.00       -23.80437
869.40       -26.00746
869.80        -28.7542
870.21       -31.84582
870.61       -35.09148
871.01       -38.27565
871.41       -40.66686
871.81       -41.40751
872.22         -40.378
872.62       -37.66276
873.02       -34.70872
873.42       -33.86047
873.82       -35.50116
874.22         -39.043
874.63        -42.3417
875.03       -41.84834
875.43       -37.03888
875.83       -29.34181
876.23       -21.37392
876.63       -17.28767
877.03       -18.12688
877.44       -22.45424
877.84       -28.57723
878.24       -33.73584
878.64       -36.92259
879.04       -39.01576
879.44       -40.03367
879.84       -40.02201
880.24       -39.22644
880.64       -37.35682
881.04       -35.48238
881.44       -35.52001
881.84        -37.7045
882.24       -41.48146
882.65       -45.15668
883.05       -45.92986
883.45       -43.15669
883.85       -37.72575
884.25       -31.26529
884.65       -26.33488
885.05       -23.87995
885.45       -23.54506
885.85       -24.32529
886.25        -24.5582
886.65       -23.83259
887.05       -22.49368
887.45        -22.0696
887.85       -24.93398
888.25       -31.19714
888.65       -39.77053
889.04       -47.69043
889.44       -50.40239
889.84       -47.03476
890.24       -39.12711
890.64       -29.98194
891.04       -24.86861
891.44        -25.3362
891.84       -30.08194
892.24       -36.75888
892.64       -41.51307
893.04        -43.1615
893.44       -42.66711
893.83       -41.81441
894.23       -43.41025
894.63       -47.89112
895.03       -54.03276
895.43       -59.33524
895.83       -60.05912
896.23       -55.53043
896.63       -47.16695
897.02       -37.80959
897.42       -31.93033
897.82       -30.69995
898.22       -32.78382
898.62       -36.13248
899.01       -37.35485
899.41        -35.5382
899.81       -31.99133
900.21        -27.8323
900.61        -24.7398
901.00       -23.36461
901.40       -23.02941
901.80       -23.71352
902.20       -25.54979
902.59       -28.22842
902.99       -31.54601
903.39       -34.77367
903.79       -36.63809
904.18       -36.89522
904.58       -36.06548
904.98       -34.34682
905.38       -32.21349
905.77       -29.97862
906.17       -27.33308
906.57        -25.5119
906.96       -26.41985
907.36       -30.20364
907.76       -36.49644
908.15       -42.52332
908.55       -43.77486
908.95       -39.50827
909.34       -31.06498
909.74       -22.34215
910.14       -19.63159
910.53       -24.31205
910.93       -34.46196
911.33       -46.05785
911.72       -52.60836
912.12        -52.4617
912.52       -47.58149
912.91        -41.2628
913.31       -38.83182
913.70       -41.54366
914.10       -47.34407
914.49       -53.63542
914.89        -56.4246
915.29       -54.63805
915.68       -49.91486
916.08       -43.67802
916.47       -38.02362
916.87       -33.88132
917.26       -30.62508
917.66       -28.50122
918.05       -27.95744
918.45       -28.84675
918.84       -31.10637
919.24       -33.75122
919.64       -35.04309
920.03       -34.56726
920.42       -32.74804
920.82       -30.35511
921.21       -28.76217
921.61       -28.42029
922.00       -28.93911
922.40       -30.12162
922.79       -31.62132
923.19       -33.26931
923.58        -35.2411
923.98       -37.31936
924.37       -39.11183
924.77       -40.48167
925.16       -41.30139
925.55       -41.83948
925.95       -42.66627
926.34       -43.76439
926.74       -44.84782
927.13       -45.31015
927.52       -44.16486
927.92       -41.36345
928.31       -37.55449
928.70       -33.37238
929.10       -29.77802
929.49       -27.20095
929.89       -25.34524
930.28        -24.6251
930.67       -25.65199
931.07       -28.21467
931.46       -31.96236
931.85       -35.39674
932.24       -36.13472
932.64       -33.70448
933.03       -28.83815
933.42       -23.08475
933.82       -18.99998
934.21       -17.43545
934.60       -17.84671
934.99       -19.46179
935.39       -20.96885
935.78       -21.89454
936.17       -22.54944
936.56        -23.4475
936.96       -25.31453
937.35       -28.23782
937.74       -31.92852
938.13        -35.3008
938.53        -36.7541
938.92        -36.0626
939.31       -33.67686
939.70       -31.28515
940.09       -31.64995
940.49       -35.14243
940.88       -40.63433
941.27       -46.08362
941.66       -48.18873
942.05         -46.234
942.44       -41.64428
942.84       -35.69968
943.23       -30.40248
943.62       -26.74507
944.01        -24.2212
944.40       -23.62898
944.79       -26.21528
945.18       -31.76042
945.57       -39.66346
945.97       -47.79268
946.36       -52.66509
946.75       -53.36303
947.14       -50.74351
947.53       -46.26252
947.92       -42.48852
948.31       -40.36547
948.70       -39.29375
949.09       -39.04118
949.48       -39.16278
949.87       -39.47213
950.26       -40.32708
950.65       -41.59784
951.04       -42.87876
951.43       -44.04549
951.82       -45.01587
952.21       -45.83193
952.60       -46.73872
952.99        -47.6726
953.38        -48.3398
953.77       -48.64214
954.16        -48.4632
954.55       -47.77212
954.94       -46.81315
955.33       -45.31851
955.72       -42.77414
956.11       -39.40952
956.50       -35.67068
956.89       -32.68436
957.28       -32.22778
957.66       -34.49379
958.05        -38.5576
958.44       -43.36749
958.83       -47.23212
959.22       -49.42957
959.61       -50.43902
960.00       -49.68978
960.39       -46.38146
960.78       -40.80494
961.16       -33.34629
961.55       -26.16002
961.94       -22.71716
962.33       -23.72114
962.72       -28.24713
963.11       -34.06646
963.49       -37.36667
963.88        -37.2077
964.27       -34.87858
964.66        -31.8393
965.04       -30.49343
965.43       -31.56469
965.82       -33.99268
966.21       -37.48549
966.60       -41.70924
966.98       -46.17227
967.37       -50.90428
967.76       -54.70242
968.15       -55.65229
968.53       -53.39809
968.92       -48.36599
969.31        -42.2683
969.69       -37.87931
970.08       -36.16612
970.47       -36.97535
970.86       -38.78054
971.24       -38.96011
971.63       -37.04489
972.02       -33.67559
972.40       -31.51156
972.79       -34.75473
973.17       -43.76705
973.56       -56.73805
973.95       -69.23913
974.33       -74.38026
974.72       -70.66843
975.11       -60.31861
975.49       -47.54285
975.88       -39.20166
976.26       -37.25091
976.65       -39.66885
977.04       -43.96292
977.42       -46.01766
977.81       -44.61892
978.19       -41.41946
978.58       -37.45802
978.96       -34.16943
979.35       -32.15555
979.74       -30.66489
980.12       -29.86414
980.51       -30.28368
980.89       -31.74852
981.28       -34.07065
981.66       -36.35835
982.05       -37.01395
982.43       -35.82948
982.82       -33.56595
983.20       -30.87223
983.59       -28.86833
983.97       -28.00237
984.35        -27.7173
984.74        -28.7625
985.12       -32.31339
985.51       -38.13337
985.89       -45.73287
986.28       -52.46902
986.66       -54.16092
987.04       -50.02219
987.43       -41.21128
987.81       -30.97901
988.20       -24.66639
988.58       -23.66505
988.96       -26.61208
989.35        -30.7616
989.73       -31.54113
990.12         -27.932
990.50       -21.65482
990.88       -15.18736
991.27        -12.3547
991.65       -14.10337
992.03       -18.92442
992.42        -25.0365
992.80       -29.74639
993.18       -32.09655
993.56       -32.88436
993.95       -32.66255
994.33       -32.26825
994.71       -32.12556
995.10       -31.95819
995.48       -31.79387
995.86       -31.83849
996.24       -32.06628
996.63       -32.34464
997.01       -32.84782
997.39       -33.73895
997.77       -34.90436
998.15       -36.34875
998.54       -37.04727
998.92       -35.37685
999.30       -31.28442
999.68       -25.44934
1000.06       -19.82569
1000.45       -17.53206
1000.83       -19.23281
1001.21       -23.93007
1001.59       -29.84738
1001.97       -34.03632
1002.35       -35.64212
1002.73       -35.60529
1003.12       -34.73586
1003.50       -34.36988
1003.88       -35.01132
1004.26       -36.05904
1004.64       -37.61671
1005.02       -39.99893
1005.40       -42.98365
1005.78        -46.3521
1006.16       -49.23909
1006.54       -50.21288
1006.92       -48.94145
1007.30       -45.88077
1007.69       -41.67321
1008.07       -37.37453
1008.45        -33.5942
1008.83       -30.40384
1009.21       -28.00972
1009.59       -26.64615
1009.97       -26.30201
1010.35        -26.7809
1010.73       -28.13533
1011.11       -30.38079
1011.49        -33.1732
1011.86        -36.2286
1012.24       -38.28418
1012.62       -37.49364
1013.00       -33.59274
1013.38       -27.18832
1013.76       -20.08174
1014.14       -15.14207
1014.52       -13.30498
1014.90       -14.18457
1015.28       -16.42108
1015.66       -17.66319
1016.04       -17.34492
1016.41       -16.06521
1016.79       -15.50997
1017.17       -18.31829
1017.55       -24.78156
1017.93       -33.72876
1018.31       -42.41798
1018.69        -46.7092
1019.06       -45.56836
1019.44       -40.03143
1019.82       -32.81439
1020.20       -28.35215
1020.58       -27.75773
1020.95       -29.83726
1021.33        -31.9986
1021.71       -30.03617
1022.09        -23.1771
1022.46       -13.13055
1022.84       -2.794941
1023.22        3.382667
1023.60        4.279114
1023.97        1.366322
1024.35        -3.15984
1024.73       -5.770977
